#Acq. time (s)=	2
#Accumulations=	10
#Range (eV)=	2...1
#Windows=	11
#Autofocus=	Off
#AutoExposure=	Off
#Spike filter=	Multiple accum.
#Delay time (s)=	0
#Binning=	1
#Readout mode=	Signal
#DeNoise=	Off
#ICS correction=	Off
#Dark correction=	Off
#Inst. Process=	Off
#Instrument=	LabRAM HR Evol
#Detector=	Syncerity OE
#Objective=	x10_VIS
#Grating=	600 (500nm)
#ND Filter=	3.2%
#Laser=	442nm_Notch
#Hole=	70.0087
#Range=	Visible
#Project=	Paty
#Sample=	
#Site=	15-06-22
#Title=	CdSe1
#Remark=	
#Date=	15.06.2022 19:21
#Acquired=	15.06.2022 19:21:04
2.79565	20.4444
2.79532	27.1111
2.79498	25.7778
2.79465	25.5556
2.79432	24
2.79399	24.6667
2.79365	23.5556
2.79332	23.1111
2.79299	26.8889
2.79265	23.1111
2.79232	23.1111
2.79199	25.3333
2.79166	26.2222
2.79133	26.4444
2.79099	25.5556
2.79066	24.2222
2.79033	21.7778
2.79	22
2.78967	26.2222
2.78933	23.1111
2.789	24.4444
2.78867	23.3333
2.78834	23.5556
2.78801	24.4444
2.78768	24.8889
2.78734	25.7778
2.78701	23.5556
2.78668	25.7778
2.78635	24.2222
2.78602	27.7778
2.78569	24.4444
2.78536	26.4444
2.78503	25.5556
2.7847	27.1111
2.78437	25.3333
2.78404	26.4444
2.78371	26.6667
2.78338	26.2222
2.78305	26
2.78272	25.3333
2.78239	27.3333
2.78206	26.4444
2.78173	27.1111
2.7814	24.4444
2.78107	27.7778
2.78074	28.4444
2.78041	24.8889
2.78008	26
2.77975	27.3333
2.77942	28
2.77909	26.8889
2.77876	26.8889
2.77843	26.6667
2.7781	28.6667
2.77777	25.1111
2.77744	26.8889
2.77711	24
2.77679	26.8889
2.77646	28.4444
2.77613	26
2.7758	29.5556
2.77547	30.4444
2.77514	28.8889
2.77482	26.6667
2.77449	29.7778
2.77416	28.6667
2.77383	29.7778
2.7735	29.3333
2.77318	28
2.77285	28.4444
2.77252	28.4444
2.77219	25.3333
2.77186	28
2.77154	26.2222
2.77121	26.6667
2.77088	27.3333
2.77056	29.1111
2.77023	29.3333
2.7699	25.5556
2.76957	27.1111
2.76925	30.6667
2.76892	27.5556
2.76859	28.2222
2.76827	28.6667
2.76794	32.6667
2.76761	28
2.76729	27.1111
2.76696	28.2222
2.76664	29.5556
2.76631	29.3333
2.76598	26.2222
2.76566	27.3333
2.76533	28.2222
2.76501	32.8889
2.76468	28
2.76435	25.3333
2.76403	30.2222
2.7637	30.2222
2.76338	27.7778
2.76305	29.3333
2.76273	27.5556
2.7624	26
2.76208	29.5556
2.76175	28.8889
2.76143	28.4444
2.7611	30.8889
2.76078	26.6667
2.76045	28.4444
2.76013	26.6667
2.7598	28.4444
2.75948	28.4444
2.75915	26.4444
2.75883	29.3333
2.75851	29.3333
2.75818	26.8889
2.75786	31.5556
2.75753	30.2222
2.75721	28.8889
2.75688	27.7778
2.75656	31.1111
2.75624	28.4444
2.75591	30.4444
2.75559	30.4444
2.75527	30.4444
2.75494	28.2222
2.75462	30.2222
2.7543	25.1111
2.75397	27.7778
2.75365	28.6667
2.75333	30.4444
2.753	30
2.75268	30.2222
2.75236	26.8889
2.75204	31.5556
2.75171	30
2.75139	30.2222
2.75107	31.5556
2.75075	28.6667
2.75042	30.8889
2.7501	28.8889
2.74978	28.4444
2.74946	29.5556
2.74914	29.1111
2.74881	28.8889
2.74849	30.8889
2.74817	32
2.74785	27.1111
2.74753	28.8889
2.7472	26.2222
2.74688	28.8889
2.74656	30.2222
2.74624	27.5556
2.74592	31.3333
2.7456	27.5556
2.74528	27.7778
2.74496	27.1111
2.74464	27.7778
2.74431	30.8889
2.74399	29.7778
2.74367	30
2.74335	26.6667
2.74303	29.3333
2.74271	28.4444
2.74239	29.1111
2.74207	32
2.74175	27.3333
2.74143	30.6667
2.74111	30.8889
2.74079	30
2.74047	29.1111
2.74015	27.7778
2.73983	32.2222
2.73951	30.2222
2.73919	32
2.73887	31.1111
2.73855	29.3333
2.73823	27.3333
2.73791	28.4444
2.73759	32
2.73728	28.2222
2.73696	28
2.73664	29.3333
2.73632	31.3333
2.736	31.7778
2.73568	30.2222
2.73536	28.6667
2.73504	31.7778
2.73472	30.6667
2.73441	31.1111
2.73409	28.6667
2.73377	30
2.73345	30
2.73313	26.8889
2.73281	27.7778
2.7325	30.6667
2.73218	30.2222
2.73186	31.3333
2.73154	32
2.73123	29.3333
2.73091	30.4444
2.73059	31.5556
2.73027	35.1111
2.72996	30.6667
2.72964	30.2222
2.72932	30.2222
2.729	31.3333
2.72869	32
2.72837	30.2222
2.72805	29.3333
2.72774	33.3333
2.72742	30.4444
2.7271	33.3333
2.72679	29.1111
2.72647	32.2222
2.72615	32.4444
2.72584	31.3333
2.72552	29.5556
2.7252	32
2.72489	35.7778
2.72457	30.8889
2.72426	31.5556
2.72394	31.5556
2.72362	33.7778
2.72331	28.8889
2.72299	28.2222
2.72268	33.1111
2.72236	32.4444
2.72204	29.3333
2.72173	30.2222
2.72141	32.6667
2.7211	31.7778
2.72078	30.6667
2.72047	31.5556
2.72015	33.1111
2.71984	30.4444
2.71952	32.8889
2.71921	32.4444
2.71889	31.5556
2.71858	32.6667
2.71826	29.7778
2.71795	30.6667
2.71764	31.7778
2.71732	28
2.71701	32.6667
2.71669	32.2222
2.71638	33.5556
2.71606	30.4444
2.71575	32.6667
2.71544	32.8889
2.71512	31.7778
2.71481	33.3333
2.7145	29.7778
2.71418	35.1111
2.71387	31.1111
2.71355	31.7778
2.71324	31.7778
2.71293	31.1111
2.71261	32.2222
2.7123	31.3333
2.71199	28.6667
2.71168	32.4444
2.71136	32.6667
2.71105	31.7778
2.71074	32.4444
2.71042	32.6667
2.71011	30.4444
2.7098	30
2.70949	32.8889
2.70917	33.7778
2.70886	32.2222
2.70855	32.8889
2.70824	33.5556
2.70792	32.4444
2.70761	33.1111
2.7073	32.2222
2.70699	31.3333
2.70668	33.1111
2.70637	32.4444
2.70605	34.4444
2.70574	34.4444
2.70543	33.3333
2.70512	33.7778
2.70481	31.1111
2.7045	34.6667
2.70418	34.6667
2.70387	33.7778
2.70356	32.6667
2.70325	32.2222
2.70294	34.2222
2.70263	33.3333
2.70232	32
2.70201	31.3333
2.7017	34.6667
2.70139	32.8889
2.70108	35.3333
2.70077	34.6667
2.70046	34.4444
2.70015	33.3333
2.69984	36.6667
2.69952	34.6667
2.69921	36.2222
2.6989	30.6667
2.69859	32.2222
2.69828	34.8889
2.69798	35.1111
2.69767	35.1111
2.69736	33.7778
2.69705	34.6667
2.69674	34.6667
2.69643	33.1111
2.69612	33.5556
2.69581	37.1111
2.6955	38.6667
2.69519	33.5556
2.69488	36.6667
2.69457	33.7778
2.69426	34.2222
2.69395	35.5556
2.69365	34.8889
2.69334	36.6667
2.69303	34
2.69272	34.2222
2.69241	36.2222
2.6921	37.7778
2.69179	32
2.69149	34.6667
2.69118	34.8889
2.69087	33.3333
2.69056	36.4444
2.69025	36.2222
2.68995	35.3333
2.68964	35.1111
2.68933	35.5556
2.68902	35.1111
2.68872	34.8889
2.68841	37.1111
2.6881	36.4444
2.68779	33.1111
2.68749	34.4444
2.68718	37.1111
2.68687	37.7778
2.68656	34.6667
2.68626	35.3333
2.68595	36.6667
2.68564	35.1111
2.68534	35.1111
2.68503	37.3333
2.68472	36.8889
2.68442	36.2222
2.68411	36.2222
2.6838	36.6667
2.6835	37.1111
2.68319	37.3333
2.68289	38.4444
2.68258	37.1111
2.68227	36.6667
2.68197	35.3333
2.68166	35.7778
2.68136	35.3333
2.68105	37.1111
2.68074	34.8889
2.68044	37.1111
2.68013	38
2.67983	37.3333
2.67952	38.8889
2.67922	41.1111
2.67891	35.7778
2.67861	34.8889
2.6783	39.1111
2.678	33.1111
2.67769	38
2.67739	38
2.67708	38
2.67678	39.3333
2.67647	39.3333
2.67617	35.7778
2.67586	37.7778
2.67556	36.6667
2.67525	37.1111
2.67495	34.4444
2.67464	36
2.67434	41.7778
2.67404	38.4444
2.67373	39.7778
2.67343	34.8889
2.67312	37.7778
2.67282	38
2.67252	37.7778
2.67221	38.4444
2.67191	39.7778
2.67161	37.3333
2.6713	41.5556
2.671	37.7778
2.6707	37.5556
2.67039	38.2222
2.67009	40
2.66979	41.5556
2.66948	38.8889
2.66918	37.3333
2.66888	38.4444
2.66857	38.4444
2.66827	37.3333
2.66797	37.3333
2.66767	38.2222
2.66736	38.4444
2.66706	38.8889
2.66676	40.6667
2.66646	39.3333
2.66615	41.1111
2.66585	39.3333
2.66555	40.6667
2.66525	38.6667
2.66495	41.5556
2.66464	39.7778
2.66434	40.6667
2.66404	40.4444
2.66374	40.2222
2.66344	39.1111
2.66314	41.3333
2.66283	44
2.66253	37.3333
2.66223	40.8889
2.66193	42
2.66163	41.7778
2.66133	42.4444
2.66103	44
2.66073	41.7778
2.66042	43.7778
2.66012	40.2222
2.65982	42.8889
2.65952	43.5556
2.65922	43.5556
2.65892	44.4444
2.65862	44.6667
2.65832	40
2.65802	42.2222
2.65772	44
2.65742	40.8889
2.65712	42.2222
2.65682	40.4444
2.65652	44.4444
2.65622	43.1111
2.65592	42.4444
2.65562	39.3333
2.65532	39.7778
2.65502	41.7778
2.65472	45.3333
2.65442	43.5556
2.65412	43.7778
2.65382	43.7778
2.65352	42.2222
2.65322	44
2.65292	45.7778
2.65262	44.8889
2.65233	42.6667
2.65203	45.7778
2.65173	47.3333
2.65143	44.6667
2.65113	43.1111
2.65083	42.2222
2.65053	45.5556
2.65023	44.2222
2.64994	46.2222
2.64964	46
2.64934	44
2.64904	46.4444
2.64874	45.5556
2.64844	46.2222
2.64815	43.7778
2.64785	47.5556
2.64755	45.1111
2.64725	43.7778
2.64695	46.6667
2.64666	44.4444
2.64636	44.4444
2.64606	46
2.64576	43.3333
2.64547	42.8889
2.64517	45.3333
2.64487	45.1111
2.64457	45.1111
2.64428	46.6667
2.64398	48.4444
2.64368	48.6667
2.64339	47.7778
2.64309	45.3333
2.64279	48.4444
2.6425	45.7778
2.6422	46.8889
2.6419	47.7778
2.64161	52.2222
2.64131	47.5556
2.64101	44.8889
2.64072	46.2222
2.64042	48.4444
2.64012	50.2222
2.63983	48.6667
2.63953	49.7778
2.63924	50.8889
2.63894	48.2222
2.63864	47.5556
2.63835	53.7778
2.63805	49.7778
2.63776	47.7778
2.63746	47.7778
2.63717	51.1111
2.63687	48.8889
2.63657	48.4444
2.63628	49.5556
2.63598	50.6667
2.63569	46.8889
2.63539	50
2.6351	50
2.6348	47.5556
2.63451	52
2.63421	47.7778
2.63392	46.8889
2.63363	52.6667
2.63333	49.3333
2.63304	51.3333
2.63274	50.6667
2.63245	48.8889
2.63215	52.4444
2.63186	49.7778
2.63156	52.4444
2.63127	57.3333
2.63098	55.3333
2.63068	54
2.63039	52.2222
2.63009	54
2.6298	53.1111
2.62951	49.1111
2.62921	53.5556
2.62892	53.3333
2.62863	53.5556
2.62833	53.1111
2.62804	51.1111
2.62775	52.6667
2.62745	58
2.62716	58.2222
2.62687	53.1111
2.62657	54
2.62628	54.8889
2.62599	56.2222
2.62569	52.4444
2.6254	55.1111
2.62511	56.4444
2.62482	55.3333
2.62452	57.1111
2.62423	56.6667
2.62394	57.1111
2.62365	56.8889
2.62335	54.6667
2.62306	54.4444
2.62277	56.4444
2.62248	60.2222
2.62218	56.2222
2.62189	58.2222
2.6216	57.7778
2.62131	56
2.62102	56.6667
2.62073	60.4444
2.62043	59.7778
2.62014	63.1111
2.61985	57.1111
2.61956	57.5556
2.61927	60.8889
2.61898	56.2222
2.61869	59.7778
2.61839	59.7778
2.6181	57.3333
2.61781	60
2.61752	60.8889
2.61723	58.6667
2.61694	60.4444
2.61665	59.3333
2.61636	60.2222
2.61607	61.5556
2.61578	62
2.61549	58.8889
2.6152	60.6667
2.61491	65.1111
2.61462	58.8889
2.61432	62.6667
2.61403	64.2222
2.61374	59.7778
2.61345	59.1111
2.61316	67.5556
2.61287	63.1111
2.61258	63.7778
2.6123	64
2.61201	67.3333
2.61172	66.6667
2.61143	62.6667
2.61114	65.3333
2.61085	63.7778
2.61056	66.8889
2.61027	65.1111
2.60998	64.4444
2.60969	67.1111
2.6094	67.3333
2.60911	65.3333
2.60882	67.5556
2.60853	69.1111
2.60825	63.1111
2.60796	63.1111
2.60767	68.8889
2.60738	66.6667
2.60709	67.3333
2.6068	65.3333
2.60651	69.5556
2.60623	66.8889
2.60594	66.6667
2.60565	65.5556
2.60536	67.3333
2.60507	72.4444
2.60478	72.6667
2.6045	70
2.60421	68.8889
2.60392	69.5556
2.60363	69.5556
2.60335	67.7778
2.60306	71.7778
2.60277	71.3333
2.60248	70.4445
2.6022	74.4444
2.60191	75.3333
2.60162	69.7778
2.60133	71.7778
2.60105	71.7778
2.60076	71.3333
2.60047	76.4444
2.60018	73.5556
2.5999	78.4444
2.59961	76
2.59932	74
2.59904	77.5556
2.59875	74.2222
2.59846	80.4444
2.59818	75.1111
2.59789	74.4444
2.5976	74
2.59732	82.8889
2.59703	76
2.59675	75.1111
2.59646	75.1111
2.59617	77.7778
2.59589	77.1111
2.5956	78.2222
2.59532	75.3333
2.59503	80.6667
2.59474	80.2222
2.59446	75.3333
2.59417	82.4444
2.59389	78
2.5936	77.1111
2.59332	76.4444
2.59303	81.3333
2.59275	79.3333
2.59246	84.6667
2.59218	81.3333
2.59189	86.2222
2.59161	81.3333
2.59132	81.5556
2.59104	78.6667
2.59075	86.2222
2.59047	85.3333
2.59018	86.4444
2.5899	86
2.58961	87.3333
2.58933	84.6667
2.58904	79.5556
2.58876	85.1111
2.58847	83.3333
2.58819	89.5556
2.58791	83.3333
2.58762	88
2.58734	84.8889
2.58705	91.3333
2.58677	88.2222
2.58649	87.5556
2.5862	90
2.58592	90.8889
2.58563	87.3333
2.58535	87.1111
2.58507	89.5556
2.58478	86.8889
2.5845	87.7778
2.58422	93.7778
2.58393	93.3333
2.58365	95.5556
2.58337	92.8889
2.58309	90.4444
2.5828	94.2222
2.58252	91.5556
2.58224	94
2.58195	94.8889
2.58167	95.1111
2.58139	94.6667
2.58111	93.5556
2.58082	92.4444
2.58054	94.4444
2.58026	96.4444
2.57998	94.8889
2.57969	96.8889
2.57941	92.8889
2.57913	99.3333
2.57885	98.6667
2.57856	100.889
2.57828	98.8889
2.578	96.4444
2.57772	97.5556
2.57744	96.4444
2.57716	100.444
2.57687	100.222
2.57659	101.111
2.57631	99.3333
2.57603	103.111
2.57575	102.444
2.57547	100.889
2.57518	103
2.5749	103.111
2.57462	105.556
2.57434	106.889
2.57406	105.333
2.57378	106.889
2.5735	104.667
2.57322	106.222
2.57294	105.333
2.57266	109.333
2.57238	108.667
2.57209	108
2.57181	106.667
2.57153	110
2.57125	108.667
2.57097	110.667
2.57069	110.667
2.57041	111.556
2.57013	112.444
2.56985	111.778
2.56957	109.333
2.56929	113.333
2.56901	115.778
2.56873	110.667
2.56845	120.222
2.56817	113.556
2.56789	109.778
2.56761	110.889
2.56733	121.778
2.56706	114.667
2.56678	117.333
2.5665	117.556
2.56622	116
2.56594	120.889
2.56566	117.778
2.56538	122.222
2.5651	119.333
2.56482	119.333
2.56454	122.889
2.56426	123.333
2.56399	124.222
2.56371	118.222
2.56343	121.111
2.56315	127.556
2.56287	124.667
2.56259	122.444
2.56231	128.222
2.56204	131.111
2.56176	124.667
2.56148	124.222
2.5612	122.667
2.56092	127.778
2.56065	128.667
2.56037	126.667
2.56009	126.444
2.55981	131.333
2.55953	129.333
2.55926	131.333
2.55898	128.444
2.5587	128.889
2.55842	132.889
2.55815	134
2.55787	130.889
2.55759	133.778
2.55731	133.111
2.55704	136.222
2.55676	136.667
2.55648	132.444
2.55621	139.333
2.55593	142
2.55565	133.778
2.55538	140.667
2.5551	138.889
2.55482	142.667
2.55455	134.667
2.55427	139.111
2.55399	139.556
2.55372	136.667
2.55344	146.444
2.55316	145.333
2.55289	152.444
2.55261	145.556
2.55234	140.667
2.55206	144.889
2.55178	144.222
2.55151	155.556
2.55123	148.444
2.55096	150
2.55068	145.778
2.5504	148.222
2.55013	155.778
2.54985	156.889
2.54958	158.444
2.5493	150
2.54903	157.556
2.54875	158.667
2.54848	155.333
2.5482	155.778
2.54793	151.778
2.54765	159.111
2.54738	157.556
2.5471	154.222
2.54683	157.111
2.54655	156.222
2.54628	156.667
2.546	158.667
2.54573	159.333
2.54545	158.889
2.54518	161.333
2.5449	160.222
2.54463	160.889
2.54435	166.889
2.54408	163.778
2.54381	166.667
2.54353	168.889
2.54326	168.222
2.54298	176.444
2.54271	170.889
2.54244	170
2.54216	168.667
2.54189	172.222
2.54161	168.222
2.54134	173.556
2.54107	172.667
2.54079	174.889
2.54052	172.222
2.54025	176.667
2.53997	172.889
2.5397	181.111
2.53943	175.111
2.53915	177.556
2.53888	182.667
2.53861	176.444
2.53834	181.778
2.53806	181.778
2.53779	183.778
2.53752	181.111
2.53724	187.111
2.53697	185.333
2.5367	189.556
2.53643	190.667
2.53615	190.889
2.53588	191.333
2.53561	194.889
2.53534	195.556
2.53506	187.778
2.53479	184.667
2.53452	192.444
2.53425	194.222
2.53398	188.222
2.5337	197.333
2.53343	187.556
2.53316	198.222
2.53289	194.222
2.53262	197.111
2.53235	198.222
2.53207	196.444
2.5318	198.444
2.53153	198.667
2.53126	204.889
2.53099	200.889
2.53072	206.444
2.53045	204
2.53017	206.444
2.5299	207.333
2.52963	213.778
2.52936	204.889
2.52909	217.111
2.52882	210.444
2.52855	211.111
2.52828	210.667
2.52801	209.778
2.52774	218.667
2.52747	214.889
2.5272	213.111
2.52693	217.111
2.52666	222.222
2.52638	222.222
2.52611	221.556
2.52584	217.778
2.52557	222.889
2.5253	224.444
2.52503	223.556
2.52476	227.778
2.52449	220.889
2.52422	221.556
2.52395	232.444
2.52369	232.667
2.52342	225.778
2.52315	232.444
2.52288	234.444
2.52261	234.222
2.52234	234.667
2.52207	230.444
2.5218	234.222
2.52153	232.222
2.52126	234.222
2.52099	240.667
2.52072	242.889
2.52045	240
2.52018	246.444
2.51992	241.778
2.51965	244.985
2.51938	246.304
2.51911	243.864
2.51884	250.42
2.51857	244.152
2.5183	251.824
2.51804	243.784
2.51777	247.159
2.5175	249.007
2.51723	254.366
2.51696	246.799
2.51669	247.457
2.51643	260.096
2.51616	248.923
2.51589	253.086
2.51562	253.227
2.51535	254.925
2.51509	256.129
2.51482	265.333
2.51455	257.954
2.51428	257.51
2.51402	255.209
2.51375	263.685
2.51348	262.744
2.51321	262.569
2.51295	265.384
2.51268	261.349
2.51241	271.012
2.51215	270.126
2.51188	264.335
2.51161	266.761
2.51134	266.354
2.51108	273.613
2.51081	268.129
2.51054	264.114
2.51028	274.416
2.51001	269.251
2.50974	272.042
2.50948	272.142
2.50921	277.173
2.50894	275.782
2.50868	277.166
2.50841	279.975
2.50815	281.497
2.50788	283.596
2.50761	278.074
2.50735	280.327
2.50708	286.352
2.50682	286.17
2.50655	287.189
2.50628	287.53
2.50602	286.54
2.50575	288.326
2.50549	286.301
2.50522	290.95
2.50496	295.506
2.50469	290.093
2.50442	295.725
2.50416	292.861
2.50389	295.76
2.50363	295.89
2.50336	296.446
2.5031	306.475
2.50283	296.472
2.50257	298.351
2.5023	301.197
2.50204	298.165
2.50177	306.455
2.50151	303.475
2.50124	302.066
2.50098	307.347
2.50071	309.688
2.50045	304.745
2.50019	310.771
2.49992	312.832
2.49966	310.357
2.49939	309.923
2.49913	309.393
2.49886	313.148
2.4986	318.039
2.49834	311.921
2.49807	315.848
2.49781	312.866
2.49754	317.585
2.49728	318.006
2.49702	320.997
2.49675	319.2
2.49649	325.683
2.49623	315.537
2.49596	327.605
2.4957	328.605
2.49544	320.548
2.49517	323.487
2.49491	329.277
2.49465	330.983
2.49438	332.064
2.49412	331.404
2.49386	338.743
2.49359	337.373
2.49333	337.751
2.49307	339.947
2.49305	340
2.49279	337.333
2.49252	342
2.49226	329.778
2.492	340.889
2.49173	348.222
2.49147	340.222
2.49121	347.778
2.49094	344
2.49068	344.444
2.49041	344.444
2.49015	353.778
2.48989	352.667
2.48963	359.556
2.48936	350.667
2.4891	348.667
2.48884	358.667
2.48857	355.111
2.48831	361.333
2.48805	365.111
2.48778	370.889
2.48752	361.333
2.48726	358
2.487	365.333
2.48673	371.778
2.48647	366.667
2.48621	375.556
2.48595	364.667
2.48568	379.333
2.48542	380.444
2.48516	377.778
2.4849	384.222
2.48464	377.111
2.48437	372.667
2.48411	378
2.48385	390.667
2.48359	373.111
2.48333	390
2.48306	385.778
2.4828	393.556
2.48254	394.222
2.48228	388.889
2.48202	389.556
2.48176	397.111
2.48149	395.333
2.48123	392.222
2.48097	402
2.48071	395.333
2.48045	395.778
2.48019	407.333
2.47993	406.667
2.47967	404.889
2.4794	410.667
2.47914	406.889
2.47888	403.778
2.47862	414
2.47836	400
2.4781	411.333
2.47784	413.778
2.47758	403.333
2.47732	410.667
2.47706	430.444
2.4768	417.556
2.47654	420.444
2.47628	426.222
2.47602	427.111
2.47576	427.333
2.4755	431.111
2.47524	431.778
2.47498	432
2.47472	432.889
2.47446	437.778
2.4742	430.222
2.47394	439.111
2.47368	432.889
2.47342	447.778
2.47316	450.444
2.4729	448.222
2.47264	448.222
2.47238	445.556
2.47212	454.667
2.47186	443.111
2.4716	448.222
2.47134	458.889
2.47108	456.889
2.47082	448.667
2.47057	469.333
2.47031	455.333
2.47005	460.667
2.46979	474.444
2.46953	464.667
2.46927	473.333
2.46901	469.778
2.46875	464.667
2.4685	478.222
2.46824	487.556
2.46798	468.444
2.46772	471.333
2.46746	482.444
2.4672	468
2.46694	483.111
2.46669	481.556
2.46643	490.667
2.46617	483.556
2.46591	491.333
2.46565	482.444
2.4654	494.889
2.46514	499.556
2.46488	500
2.46462	500.889
2.46437	498.444
2.46411	500.222
2.46385	504.444
2.46359	500.444
2.46334	501.111
2.46308	505.333
2.46282	507.556
2.46256	506.667
2.46231	513.778
2.46205	504.667
2.46179	519.333
2.46153	515.111
2.46128	514.222
2.46102	505.333
2.46076	522.222
2.46051	518.444
2.46025	522.444
2.45999	526.889
2.45974	524.667
2.45948	526
2.45922	522.444
2.45897	529.556
2.45871	539.778
2.45845	537.333
2.4582	535.333
2.45794	532.667
2.45768	529.333
2.45743	537.778
2.45717	539.111
2.45692	550
2.45666	542.889
2.4564	548
2.45615	549.111
2.45589	550.445
2.45564	547.333
2.45538	553.333
2.45513	574.222
2.45487	554.667
2.45461	558.667
2.45436	560.444
2.4541	561.333
2.45385	550.667
2.45359	553.778
2.45334	561.333
2.45308	561.333
